    n     flux[photons/s/cm^2]     w-range[A]
      1  4.7545757E+03       1754.       1770.
      2  6.8776895E+03       1770.       1786.
      3  1.2421121E+04       1786.       1802.
      4  1.3722022E+04       1802.       1818.
      5  1.9471971E+04       1818.       1835.
      6  1.7870465E+04       1835.       1852.
      7  2.6468436E+04       1852.       1869.
      8  1.9035611E+04       1869.       1887.
      9  5.9622074E+04       1887.       1905.
     10  5.0428090E+04       1905.       1923.
     11  1.7803831E+05       1923.       1942.
     12  1.7815050E+05       1942.       1961.
     13  2.4497667E+05       1961.       1980.
     14  3.7360994E+05       1980.       2000.
     15  5.0635706E+05       2000.       2020.
     16  6.4301875E+05       2020.       2041.
     17  7.3359325E+05       2041.       2062.
     18  1.1118850E+06       2062.       2083.
     19  5.0242990E+06       2083.       2105.
     20  3.2669200E+06       2105.       2128.
     21  6.3033405E+06       2128.       2151.
     22  4.9156795E+06       2151.       2174.
     23  1.9111842E+07       2174.       2200.
     24  7.3249460E+06       2200.       2222.
     25  4.1566828E+07       2222.       2247.
     26  1.4324611E+07       2247.       2273.
     27  7.8822608E+07       2273.       2299.
     28  1.0181569E+08       2299.       2326.
     29  2.1623978E+08       2326.       2353.
     30  7.4878992E+07       2353.       2381.
     31  5.4334042E+08       2381.       2410.
     32  1.0864105E+09       2410.       2439.
     33  1.7210470E+09       2439.       2469.
     34  8.9887642E+08       2469.       2500.
     35  1.3794129E+09       2500.       2532.
     36  4.0941768E+09       2532.       2564.
     37  2.4436239E+09       2564.       2597.
     38  2.5166760E+10       2597.       2632.
     39  2.0655294E+10       2632.       2667.
     40  4.0929284E+10       2667.       2703.
     41  4.0548102E+10       2703.       2740.
     42  6.0103500E+10       2740.       2778.
     43  5.1507876E+10       2778.       2817.
     44  4.3366543E+10       2817.       2857.
     45  1.8640006E+11       2857.       2899.
     46  3.4343138E+11       2899.       2941.
     47  3.2674438E+11       2941.       2985.
     48  2.8192607E+11       2985.       3030.
     49  4.8381893E+11       3030.       3077.
     50  7.0276881E+11       3077.       3125.
     51  2.4725959E+12       3125.       3175.
     52  3.7962803E+12       3175.       3225.
     53  3.8845208E+12       3225.       3275.
     54  1.0527025E+13       3275.       3325.
     55  1.0153030E+13       3325.       3375.
     56  8.7981115E+12       3375.       3425.
     57  2.4617875E+12       3425.       3450.
     58  2.0984357E+13       3450.       3550.
     59  2.0819424E+13       3550.       3650.
     60  3.5860343E+13       3650.       3750.
     61  5.2525563E+13       3750.       3850.
     62  3.9649540E+13       3850.       3950.
     63  1.1439385E+14       3950.       4050.
     64  1.8157889E+14       4050.       4150.
     65  1.0041371E+14       4150.       4250.
     66  1.4779479E+14       4250.       4350.
     67  2.6109287E+14       4350.       4450.
     68  3.2432462E+14       4450.       4550.
     69  3.8396001E+14       4550.       4650.
     70  4.0564617E+14       4650.       4750.
     71  3.5512726E+14       4750.       4850.
     72  5.7684364E+14       4850.       4950.
     73  3.7887712E+14       4950.       5050.
     74  4.4401983E+14       5050.       5150.
     75  4.4896978E+14       5150.       5250.
     76  7.5485815E+14       5250.       5350.
     77  9.3455636E+14       5350.       5450.
     78  8.1497541E+14       5450.       5550.
     79  8.3174491E+14       5550.       5650.
     80  1.0627577E+15       5650.       5750.
     81  1.2193572E+15       5750.       5850.
     82  6.6261829E+14       5850.       5950.
     83  1.1410280E+15       5950.       6050.
     84  1.4516114E+15       6050.       6150.
     85  8.1904993E+14       6150.       6250.
     86  1.0485398E+15       6250.       6350.
     87  1.2325129E+15       6350.       6450.
     88  1.5308827E+15       6450.       6550.
     89  1.8170463E+15       6550.       6650.
     90  1.3059449E+15       6650.       6750.
     91  1.2246993E+15       6750.       6850.
     92  1.2433152E+15       6850.       6950.
     93  2.1138053E+15       6950.       7050.
     94  1.5285787E+15       7050.       7150.
     95  1.6310299E+15       7150.       7250.
     96  2.8386880E+15       7250.       7350.
     97  3.6681007E+15       7350.       7450.
     98  3.9189405E+15       7450.       7550.
     99  3.6326235E+15       7550.       7650.
    100  2.8357602E+15       7650.       7750.
    101  3.2014029E+15       7750.       7850.
    102  3.6299662E+15       7850.       7950.
    103  4.1451403E+15       7950.       8050.
    104  4.5719707E+15       8050.       8150.
    105  4.4725151E+15       8150.       8250.
    106  4.6039816E+15       8250.       8350.
    107  4.4244173E+15       8350.       8450.
    108  4.2040941E+15       8450.       8550.
