    n     flux[photons/s/cm^2]     w-range[A]
      1  4.4314497E+05       1754.       1770.
      2  6.6007588E+05       1770.       1786.
      3  9.8897225E+05       1786.       1802.
      4  1.0419153E+06       1802.       1818.
      5  1.3207166E+06       1818.       1835.
      6  1.4978390E+06       1835.       1852.
      7  2.1691662E+06       1852.       1869.
      8  1.7093001E+06       1869.       1887.
      9  3.6430258E+06       1887.       1905.
     10  3.3755798E+06       1905.       1923.
     11  8.1910600E+06       1923.       1942.
     12  8.7337250E+06       1942.       1961.
     13  1.1635271E+07       1961.       1980.
     14  1.5993656E+07       1980.       2000.
     15  2.0129758E+07       2000.       2020.
     16  2.4911196E+07       2020.       2041.
     17  3.0567038E+07       2041.       2062.
     18  3.7260780E+07       2062.       2083.
     19  7.2312216E+07       2083.       2105.
     20  6.7948288E+07       2105.       2128.
     21  1.0131443E+08       2128.       2151.
     22  9.7191288E+07       2151.       2174.
     23  1.8304258E+08       2174.       2200.
     24  1.4740240E+08       2200.       2222.
     25  3.3345434E+08       2222.       2247.
     26  2.3826309E+08       2247.       2273.
     27  4.4650038E+08       2273.       2299.
     28  6.8027213E+08       2299.       2326.
     29  1.0014006E+09       2326.       2353.
     30  7.4192352E+08       2353.       2381.
     31  1.6247223E+09       2381.       2410.
     32  2.6330854E+09       2410.       2439.
     33  3.6812009E+09       2439.       2469.
     34  3.3470193E+09       2469.       2500.
     35  4.9621509E+09       2500.       2532.
     36  8.0970885E+09       2532.       2564.
     37  7.3394248E+09       2564.       2597.
     38  2.8233671E+10       2597.       2632.
     39  2.5590356E+10       2632.       2667.
     40  4.1315045E+10       2667.       2703.
     41  4.8997183E+10       2703.       2740.
     42  6.7942683E+10       2740.       2778.
     43  6.3711519E+10       2778.       2817.
     44  6.5048617E+10       2817.       2857.
     45  1.9392050E+11       2857.       2899.
     46  2.6838915E+11       2899.       2941.
     47  2.9501905E+11       2941.       2985.
     48  2.8814708E+11       2985.       3030.
     49  4.0940238E+11       3030.       3077.
     50  4.4809755E+11       3077.       3125.
     51  1.1424173E+12       3125.       3175.
     52  1.8683352E+12       3175.       3225.
     53  1.8659814E+12       3225.       3275.
     54  4.9492792E+12       3275.       3325.
     55  4.4684830E+12       3325.       3375.
     56  4.7135557E+12       3375.       3425.
     57  1.5146925E+12       3425.       3450.
     58  1.1888215E+13       3450.       3550.
     59  1.1587890E+13       3550.       3650.
     60  1.9408062E+13       3650.       3750.
     61  2.6297862E+13       3750.       3850.
     62  2.1953675E+13       3850.       3950.
     63  5.2357593E+13       3950.       4050.
     64  7.8418050E+13       4050.       4150.
     65  5.6348495E+13       4150.       4250.
     66  6.9387491E+13       4250.       4350.
     67  1.1718789E+14       4350.       4450.
     68  1.3374204E+14       4450.       4550.
     69  1.7113858E+14       4550.       4650.
     70  1.7921323E+14       4650.       4750.
     71  1.7113230E+14       4750.       4850.
     72  2.2727573E+14       4850.       4950.
     73  1.6739340E+14       4950.       5050.
     74  1.7381280E+14       5050.       5150.
     75  1.7543356E+14       5150.       5250.
     76  2.8148340E+14       5250.       5350.
     77  3.2780237E+14       5350.       5450.
     78  3.1552004E+14       5450.       5550.
     79  3.2306284E+14       5550.       5650.
     80  3.9233318E+14       5650.       5750.
     81  4.4510598E+14       5750.       5850.
     82  3.2034228E+14       5850.       5950.
     83  4.3540875E+14       5950.       6050.
     84  4.8860816E+14       6050.       6150.
     85  3.4869434E+14       6150.       6250.
     86  4.1439472E+14       6250.       6350.
     87  4.5085919E+14       6350.       6450.
     88  5.0019494E+14       6450.       6550.
     89  5.7967865E+14       6550.       6650.
     90  4.9066512E+14       6650.       6750.
     91  4.7074875E+14       6750.       6850.
     92  4.7099638E+14       6850.       6950.
     93  6.5842379E+14       6950.       7050.
     94  5.3878046E+14       7050.       7150.
     95  5.5905948E+14       7150.       7250.
     96  7.6758320E+14       7250.       7350.
     97  8.7945804E+14       7350.       7450.
     98  9.2452057E+14       7450.       7550.
     99  8.9602312E+14       7550.       7650.
    100  8.0676183E+14       7650.       7750.
    101  8.4504495E+14       7750.       7850.
    102  8.9659435E+14       7850.       7950.
    103  9.6750983E+14       7950.       8050.
    104  1.0104823E+15       8050.       8150.
    105  1.0002239E+15       8150.       8250.
    106  1.0142489E+15       8250.       8350.
    107  9.7463170E+14       8350.       8450.
    108  9.6677117E+14       8450.       8550.
